User: unknown
Title :  
Absorbance		
Wavelength	OE1_CHANNEL1	
305.000000	0.749840
306.000000	0.746030
307.000000	0.740619
308.000000	0.732640
309.000000	0.729079
310.000000	0.729437
311.000000	0.738844
312.000000	0.746406
313.000000	0.752497
314.000000	0.756669
315.000000	0.751535
316.000000	0.760317
317.000000	0.776042
318.000000	0.812822
319.000000	0.828701
320.000000	0.829304
321.000000	0.800759
322.000000	0.779741
323.000000	0.764880
324.000000	0.758681
325.000000	0.764094
326.000000	0.774904
327.000000	0.792340
328.000000	0.821276
329.000000	0.844197
330.000000	0.862750
331.000000	0.871070
332.000000	0.879628
333.000000	0.887668
334.000000	0.896298
335.000000	0.906287
336.000000	0.918327
337.000000	0.932451
338.000000	0.949939
339.000000	0.966612
340.000000	0.983634
341.000000	0.998964
342.000000	1.018360
343.000000	1.040381
344.000000	1.064242
345.000000	1.091735
346.000000	1.113215
347.000000	1.132211
348.000000	1.144650
349.000000	1.164983
350.000000	1.189000
351.000000	1.220697
352.000000	1.246583
353.000000	1.267991
354.000000	1.284495
355.000000	1.294085
356.000000	1.305080
357.000000	1.314970
358.000000	1.326488
359.000000	1.332012
360.000000	1.334370
361.000000	1.330152
362.000000	1.331240
363.000000	1.335560
364.000000	1.342837
365.000000	1.355709
366.000000	1.361742
367.000000	1.364634
368.000000	1.363101
369.000000	1.362013
370.000000	1.360823
371.000000	1.357987
372.000000	1.359635
373.000000	1.364485
374.000000	1.376304
375.000000	1.384775
376.000000	1.390082
377.000000	1.391927
378.000000	1.387551
379.000000	1.387388
380.000000	1.389040
381.000000	1.394246
382.000000	1.398912
383.000000	1.403830
384.000000	1.407447
385.000000	1.413076
386.000000	1.420130
387.000000	1.428226
388.000000	1.439164
389.000000	1.445202
390.000000	1.448354
391.000000	1.446697
392.000000	1.446613
393.000000	1.447131
394.000000	1.449119
395.000000	1.451067
396.000000	1.453058
397.000000	1.454923
398.000000	1.456882
399.000000	1.457749
400.000000	1.457909
401.000000	1.456500
402.000000	1.456221
403.000000	1.456399
404.000000	1.458244
405.000000	1.458262
406.000000	1.456803
407.000000	1.453931
408.000000	1.448964
409.000000	1.445194
410.000000	1.441861
411.000000	1.439228
412.000000	1.436766
413.000000	1.434507
414.000000	1.432723
415.000000	1.430356
416.000000	1.427490
417.000000	1.424135
418.000000	1.419996
419.000000	1.416319
420.000000	1.412764
421.000000	1.409673
422.000000	1.406085
423.000000	1.402247
424.000000	1.397858
425.000000	1.393815
426.000000	1.390039
427.000000	1.386543
428.000000	1.383545
429.000000	1.380217
430.000000	1.376790
431.000000	1.373104
432.000000	1.369630
433.000000	1.366282
434.000000	1.363246
435.000000	1.360131
436.000000	1.357027
437.000000	1.353983
438.000000	1.350782
439.000000	1.348383
440.000000	1.346509
441.000000	1.345381
442.000000	1.344218
443.000000	1.343113
444.000000	1.342005
445.000000	1.340813
446.000000	1.339520
447.000000	1.338130
448.000000	1.336598
449.000000	1.335177
450.000000	1.333838
451.000000	1.332566
452.000000	1.331531
453.000000	1.330709
454.000000	1.330161
455.000000	1.329711
456.000000	1.329355
457.000000	1.329065
458.000000	1.328820
459.000000	1.328575
460.000000	1.328321
461.000000	1.328073
462.000000	1.327756
463.000000	1.327396
464.000000	1.326901
465.000000	1.326565
466.000000	1.326360
467.000000	1.326290
468.000000	1.326442
469.000000	1.326469
470.000000	1.326459
471.000000	1.326294
472.000000	1.326285
473.000000	1.326343
474.000000	1.326631
475.000000	1.326676
476.000000	1.326533
477.000000	1.326208
478.000000	1.325535
479.000000	1.325197
480.000000	1.325004
481.000000	1.325127
482.000000	1.325042
483.000000	1.324850
484.000000	1.324413
485.000000	1.324030
486.000000	1.323647
487.000000	1.323259
488.000000	1.322983
489.000000	1.322371
490.000000	1.321577
491.000000	1.320424
492.000000	1.319538
493.000000	1.318789
494.000000	1.318324
495.000000	1.317765
496.000000	1.317137
497.000000	1.316407
498.000000	1.315553
499.000000	1.314559
500.000000	1.313433
501.000000	1.312145
502.000000	1.310837
503.000000	1.309497
504.000000	1.308123
505.000000	1.306773
506.000000	1.305439
507.000000	1.304113
508.000000	1.302848
509.000000	1.301415
510.000000	1.299889
511.000000	1.298158
512.000000	1.296584
513.000000	1.295069
514.000000	1.293806
515.000000	1.292249
516.000000	1.290486
517.000000	1.288533
518.000000	1.286229
519.000000	1.284312
520.000000	1.282570
521.000000	1.281173
522.000000	1.279586
523.000000	1.277920
524.000000	1.276049
525.000000	1.274251
526.000000	1.272475
527.000000	1.270714
528.000000	1.269066
529.000000	1.267148
530.000000	1.265093
531.000000	1.262757
532.000000	1.260654
533.000000	1.258675
534.000000	1.256970
535.000000	1.255151
536.000000	1.253270
537.000000	1.251315
538.000000	1.249217
539.000000	1.247224
540.000000	1.245264
541.000000	1.243366
542.000000	1.241439
543.000000	1.239497
544.000000	1.237554
545.000000	1.235545
546.000000	1.233479
547.000000	1.231362
548.000000	1.229164
549.000000	1.227030
550.000000	1.224922
551.000000	1.222871
552.000000	1.220794
553.000000	1.218709
554.000000	1.216610
555.000000	1.214507
556.000000	1.212400
557.000000	1.210290
558.000000	1.208161
559.000000	1.206081
560.000000	1.204023
561.000000	1.202035
562.000000	1.199942
563.000000	1.197785
564.000000	1.195490
565.000000	1.193261
566.000000	1.191068
567.000000	1.188916
568.000000	1.186844
569.000000	1.184695
570.000000	1.182514
571.000000	1.180287
572.000000	1.178036
573.000000	1.175758
574.000000	1.173428
575.000000	1.171138
576.000000	1.168878
577.000000	1.166680
578.000000	1.164469
579.000000	1.162238
580.000000	1.159978
581.000000	1.157690
582.000000	1.155340
583.000000	1.152941
584.000000	1.150458
585.000000	1.148023
586.000000	1.145618
587.000000	1.143300
588.000000	1.140957
589.000000	1.138600
590.000000	1.136229
591.000000	1.133793
592.000000	1.131472
593.000000	1.129217
594.000000	1.127087
595.000000	1.124882
596.000000	1.122627
597.000000	1.120274
598.000000	1.117900
599.000000	1.115501
600.000000	1.113086
601.000000	1.110643
602.000000	1.108243
603.000000	1.105870
604.000000	1.103565
605.000000	1.101200
606.000000	1.098795
607.000000	1.096316
608.000000	1.093827
609.000000	1.091323
610.000000	1.088810
611.000000	1.086297
612.000000	1.083765
613.000000	1.081223
614.000000	1.078670
615.000000	1.076122
616.000000	1.073581
617.000000	1.071036
618.000000	1.068515
619.000000	1.066014
620.000000	1.063526
621.000000	1.061074
622.000000	1.058556
623.000000	1.055998
624.000000	1.053365
625.000000	1.050760
626.000000	1.048161
627.000000	1.045608
628.000000	1.043002
629.000000	1.040354
630.000000	1.037663
631.000000	1.034907
632.000000	1.032180
633.000000	1.029461
634.000000	1.026786
635.000000	1.024079
636.000000	1.021364
637.000000	1.018581
638.000000	1.015907
639.000000	1.013317
640.000000	1.010805
641.000000	1.008449
642.000000	1.005911
643.000000	1.003287
644.000000	1.000481
645.000000	0.997793
646.000000	0.995162
647.000000	0.992644
648.000000	0.990115
649.000000	0.987586
650.000000	0.985046
651.000000	0.982482
652.000000	0.979902
653.000000	0.977300
654.000000	0.974683
655.000000	0.972037
656.000000	0.969370
657.000000	0.966668
658.000000	0.963991
659.000000	0.961334
660.000000	0.958703
661.000000	0.956114
662.000000	0.953518
663.000000	0.950936
664.000000	0.948349
665.000000	0.945834
666.000000	0.943372
667.000000	0.940995
668.000000	0.938615
669.000000	0.936247
670.000000	0.933856
671.000000	0.931525
672.000000	0.929245
673.000000	0.927018
674.000000	0.924882
675.000000	0.922692
676.000000	0.920487
677.000000	0.918213
678.000000	0.916034
679.000000	0.913921
680.000000	0.911927
681.000000	0.909922
682.000000	0.907914
683.000000	0.905899
684.000000	0.903847
685.000000	0.901864
686.000000	0.899924
687.000000	0.898036
688.000000	0.896179
689.000000	0.894354
690.000000	0.892567
691.000000	0.890782
692.000000	0.889001
693.000000	0.887223
694.000000	0.885444
695.000000	0.883689
696.000000	0.881950
697.000000	0.880226
698.000000	0.878531
699.000000	0.876863
700.000000	0.875234
701.000000	0.873610
702.000000	0.871997
703.000000	0.870396
704.000000	0.868797
705.000000	0.867248
706.000000	0.865734
707.000000	0.864276
708.000000	0.862795
709.000000	0.861310
710.000000	0.859789
711.000000	0.858331
712.000000	0.856921
713.000000	0.855599
714.000000	0.854280
715.000000	0.852969
716.000000	0.851664
717.000000	0.850331
718.000000	0.849090
719.000000	0.847908
720.000000	0.846829
721.000000	0.845726
722.000000	0.844621
723.000000	0.843477
724.000000	0.842383
725.000000	0.841332
726.000000	0.840332
727.000000	0.839397
728.000000	0.838483
729.000000	0.837602
730.000000	0.836755
731.000000	0.835929
732.000000	0.835128
733.000000	0.834341
734.000000	0.833603
735.000000	0.832914
736.000000	0.832275
737.000000	0.831689
738.000000	0.831151
739.000000	0.830656
740.000000	0.830216
741.000000	0.829780
742.000000	0.829354
743.000000	0.828905
744.000000	0.828515
745.000000	0.828165
746.000000	0.827883
747.000000	0.827573
748.000000	0.827227
749.000000	0.826829
750.000000	0.826339
751.000000	0.825836
752.000000	0.825283
753.000000	0.824691
754.000000	0.823985
755.000000	0.823160
756.000000	0.822196
757.000000	0.821087
758.000000	0.819818
759.000000	0.818378
760.000000	0.816768
761.000000	0.814943
762.000000	0.812914
763.000000	0.810663
764.000000	0.808250
765.000000	0.805671
766.000000	0.802954
767.000000	0.800065
768.000000	0.797027
769.000000	0.793824
770.000000	0.790550
771.000000	0.787218
772.000000	0.783848
773.000000	0.780484
774.000000	0.777034
775.000000	0.773539
776.000000	0.769973
777.000000	0.766470
778.000000	0.763023
779.000000	0.759690
780.000000	0.756367
781.000000	0.753070
782.000000	0.749802
783.000000	0.746525
784.000000	0.743402
785.000000	0.740390
786.000000	0.737541
787.000000	0.734698
788.000000	0.731890
789.000000	0.729086
790.000000	0.726347
791.000000	0.723663
792.000000	0.721041
793.000000	0.718473
794.000000	0.715962
795.000000	0.713509
796.000000	0.711102
797.000000	0.708784
798.000000	0.706539
799.000000	0.704389
800.000000	0.702251
801.000000	0.700133
802.000000	0.698017
803.000000	0.695931
804.000000	0.693870
805.000000	0.691837
806.000000	0.689828
807.000000	0.687866
808.000000	0.685946
809.000000	0.684072
810.000000	0.682222
811.000000	0.680395
812.000000	0.678592
813.000000	0.676792
814.000000	0.674996
815.000000	0.673192
816.000000	0.671410
817.000000	0.669649
818.000000	0.667911
819.000000	0.666200
820.000000	0.664503
821.000000	0.662821
822.000000	0.661161
823.000000	0.659493
824.000000	0.657826
825.000000	0.656134
826.000000	0.654497
827.000000	0.652905
828.000000	0.651392
829.000000	0.649867
830.000000	0.648326
831.000000	0.646761
832.000000	0.645148
833.000000	0.643554
834.000000	0.641963
835.000000	0.640385
836.000000	0.638808
837.000000	0.637236
838.000000	0.635667
839.000000	0.634110
840.000000	0.632566
841.000000	0.631037
842.000000	0.629525
843.000000	0.628026
844.000000	0.626538
845.000000	0.625065
846.000000	0.623589
847.000000	0.622111
848.000000	0.620627
849.000000	0.619149
850.000000	0.617675
851.000000	0.616206
852.000000	0.614741
853.000000	0.613282
854.000000	0.611827
855.000000	0.610380
856.000000	0.608932
857.000000	0.607484
858.000000	0.606037
859.000000	0.604592
860.000000	0.603151
861.000000	0.601709
862.000000	0.600287
863.000000	0.598882
864.000000	0.597502
865.000000	0.596124
866.000000	0.594747
867.000000	0.593368
868.000000	0.591985
869.000000	0.590600
870.000000	0.589215
871.000000	0.587823
872.000000	0.586451
873.000000	0.585095
874.000000	0.583759
875.000000	0.582436
876.000000	0.581125
877.000000	0.579830
878.000000	0.578530
879.000000	0.577224
880.000000	0.575907
881.000000	0.574577
882.000000	0.573230
883.000000	0.571871
884.000000	0.570491
885.000000	0.569135
886.000000	0.567799
887.000000	0.566489
888.000000	0.565194
889.000000	0.563918
890.000000	0.562672
891.000000	0.561416
892.000000	0.560151
893.000000	0.558872
894.000000	0.557558
895.000000	0.556285
896.000000	0.555030
897.000000	0.553827
898.000000	0.552567
899.000000	0.551274
900.000000	0.549905
901.000000	0.548583
902.000000	0.547290
903.000000	0.546073
904.000000	0.544825
905.000000	0.543554
906.000000	0.542257
907.000000	0.540905
908.000000	0.539606
909.000000	0.538333
910.000000	0.537110
911.000000	0.535875
912.000000	0.534645
913.000000	0.533400
914.000000	0.532190
915.000000	0.531004
916.000000	0.529866
917.000000	0.528705
918.000000	0.527525
919.000000	0.526294
920.000000	0.525070
921.000000	0.523855
922.000000	0.522654
923.000000	0.521494
924.000000	0.520296
925.000000	0.519085
926.000000	0.517828
927.000000	0.516636
928.000000	0.515493
929.000000	0.514432
930.000000	0.513368
931.000000	0.512305
932.000000	0.511220
933.000000	0.510141
934.000000	0.509062
935.000000	0.507979
936.000000	0.506913
937.000000	0.505780
938.000000	0.504607
939.000000	0.503347
940.000000	0.502171
941.000000	0.501048
942.000000	0.500043
943.000000	0.498992
944.000000	0.497915
945.000000	0.496770
946.000000	0.495647
947.000000	0.494539
948.000000	0.493463
949.000000	0.492396
950.000000	0.491335
951.000000	0.490273
952.000000	0.489218
953.000000	0.488121
954.000000	0.486995
955.000000	0.485831
956.000000	0.484673
957.000000	0.483523
958.000000	0.482354
959.000000	0.481280
960.000000	0.480288
961.000000	0.479455
962.000000	0.478575
963.000000	0.477647
964.000000	0.476653
965.000000	0.475542
966.000000	0.474484
967.000000	0.473441
968.000000	0.472420
969.000000	0.471434
970.000000	0.470480
971.000000	0.469600
972.000000	0.468644
973.000000	0.467632
974.000000	0.466507
975.000000	0.465424
976.000000	0.464376
977.000000	0.463381
978.000000	0.462433
979.000000	0.461528
980.000000	0.460654
981.000000	0.459865
982.000000	0.458896
983.000000	0.457820
984.000000	0.456511
985.000000	0.455428
986.000000	0.454480
987.000000	0.453812
988.000000	0.453029
989.000000	0.452190
990.000000	0.451202
991.000000	0.450245
992.000000	0.449298
993.000000	0.448383
994.000000	0.447488
995.000000	0.446620
996.000000	0.445776
997.000000	0.444972
998.000000	0.444139
999.000000	0.443295
1000.000000	0.442401
1001.000000	0.441579
1002.000000	0.440798
1003.000000	0.440128
1004.000000	0.439335
1005.000000	0.438458
1006.000000	0.437397
1007.000000	0.436436
1008.000000	0.435552
1009.000000	0.434815
1010.000000	0.434115
1011.000000	0.433453
1012.000000	0.432860
1013.000000	0.432198
1014.000000	0.431451
1015.000000	0.430610
1016.000000	0.429588
1017.000000	0.428708
1018.000000	0.427901
1019.000000	0.427267
1020.000000	0.426537
1021.000000	0.425767
1022.000000	0.424871
1023.000000	0.424084
1024.000000	0.423371
1025.000000	0.422835
1026.000000	0.422218
1027.000000	0.421544
1028.000000	0.420720
1029.000000	0.419955
1030.000000	0.419258
1031.000000	0.418649
1032.000000	0.418163
1033.000000	0.417804
1034.000000	0.417558
1035.000000	0.417490
1036.000000	0.417261
1037.000000	0.416912
1038.000000	0.416361
1039.000000	0.415745
1040.000000	0.415038
1041.000000	0.414268
1042.000000	0.413438
1043.000000	0.412590
1044.000000	0.411630
1045.000000	0.410960
1046.000000	0.410569
1047.000000	0.410668
1048.000000	0.410767
1049.000000	0.410835
1050.000000	0.410801
1051.000000	0.410584
1052.000000	0.410160
1053.000000	0.409542
1054.000000	0.408528
1055.000000	0.407965
1056.000000	0.407678
1057.000000	0.408048
1058.000000	0.407917
1059.000000	0.407509
1060.000000	0.406411
1061.000000	0.405791
1062.000000	0.405492
1063.000000	0.405868
1064.000000	0.406130
1065.000000	0.406348
1066.000000	0.406386
1067.000000	0.406379
1068.000000	0.406314
1069.000000	0.406081
1070.000000	0.406036
1071.000000	0.406205
1072.000000	0.406609
1073.000000	0.407296
1074.000000	0.407949
1075.000000	0.408536
1076.000000	0.409276
1077.000000	0.409006
1078.000000	0.408002
1079.000000	0.405739
1080.000000	0.404227
1081.000000	0.403256
1082.000000	0.403138
1083.000000	0.403577
1084.000000	0.404610
1085.000000	0.406541
1086.000000	0.408066
1087.000000	0.409169
1088.000000	0.409544
1089.000000	0.409491
1090.000000	0.409011
1091.000000	0.407787
1092.000000	0.407028
1093.000000	0.406845
1094.000000	0.407754
1095.000000	0.408920
1096.000000	0.410229
1097.000000	0.411509
1098.000000	0.412744
1099.000000	0.413390
1100.000000	0.413542
1101.000000	0.412829
1102.000000	0.412650
1103.000000	0.412790
1104.000000	0.413732
1105.000000	0.414342
1106.000000	0.414908
1107.000000	0.414900
1108.000000	0.416021
1109.000000	0.418033
1110.000000	0.421532
1111.000000	0.424781
1112.000000	0.427780
1113.000000	0.430602
1114.000000	0.432216
1115.000000	0.432691
1116.000000	0.430562
1117.000000	0.430049
1118.000000	0.431252
1119.000000	0.436679
1120.000000	0.441162
1121.000000	0.444379
1122.000000	0.446005
1123.000000	0.444067
1124.000000	0.446297
1125.000000	0.450880
1126.000000	0.459946
1127.000000	0.466583
1128.000000	0.472313
1129.000000	0.475291
1130.000000	0.481272
1131.000000	0.489219
1132.000000	0.500204
1133.000000	0.511446
1134.000000	0.522885
1135.000000	0.532357
